TITLE	Wt_IP20_KPO4
DATA TYPE
ORIGIN	JASCO
OWNER
DATE	06/09/28
TIME	13:40:22
SPECTROMETER/DATA SYSTEM	J-810
DELTAT	0
TUNITS	Temperature [C]
FIRSTT	25
LASTT	65
NPOINTST	9
DELTAX	-0.2
XUNITS	Wavelength [nm]
YUNITS	CD[mdeg]
YUNITS2	HT[V]
FIRSTX	260
LASTX	180
NPOINTS	401
XYDATA1	25	30	35	40	45	50	55	60	65	
260	-0.416228	-0.309999	-0.362521	-0.381639	-0.226328	-0.563943	-0.561531	-0.59272	-0.86265	
259.8	-0.442801	-0.503357	-0.456882	-0.479268	-0.423401	-0.712668	-0.564909	-0.364886	-0.691179	
259.6	-0.653841	-0.589009	-0.56998	-0.204373	-0.689793	-1.15544	-0.437637	-0.567993	-0.710878	
259.4	-0.406717	-0.521532	-0.399969	-0.269785	-0.36888	-0.940625	-0.838904	-0.528685	-0.304614	
259.2	-0.387213	-0.50444	-0.379985	-0.347998	-0.613956	-0.31758	-0.592072	-0.504556	-0.500182	
259	-0.234634	-0.556857	-0.382587	-0.628725	-0.662677	-0.762486	-0.283899	-0.366237	-0.587856	
258.8	-0.697768	-0.350914	-0.268196	-0.38893	-0.397667	-0.858087	-0.557593	-0.373628	-0.484155	
258.6	-0.445239	-0.451028	-0.350522	-0.427327	-0.618082	-0.731618	-0.644377	-0.543729	-0.398244	
258.4	-0.304933	-0.591779	-0.539751	-0.503349	-0.595695	-0.739322	-0.846552	-0.627559	-0.38111	
258.2	-0.321843	-0.401317	-0.403493	-0.686346	-0.393437	-0.639197	-0.856326	-0.533589	-0.414136	
258	-0.450301	-0.598808	-0.556664	-0.471954	-0.477008	-0.915483	-0.496976	-0.907436	-0.408867	
257.8	-0.394911	-0.482993	-0.456874	-0.352959	-0.599255	-0.962085	-0.457469	-0.529691	-0.50383	
257.6	-0.415613	-0.540486	-0.362036	-0.37809	-0.544449	-0.454953	-0.583447	-0.579018	-0.518472	
257.4	-0.343922	-0.66386	-0.341534	-0.527548	-0.734569	-1.10934	-0.583202	-0.549176	-0.719966	
257.2	-0.392657	-0.418207	-0.296513	-0.601848	-0.616182	-0.763885	-0.341252	-0.375887	-0.622311	
257	-0.334792	-0.46644	-0.576216	-0.314564	-0.500345	-0.979912	-0.710341	-0.55621	-0.481667	
256.8	-0.324664	-0.266675	-0.409709	-0.410649	-0.626859	-0.969179	-0.80386	-0.5382	-0.463086	
256.6	-0.361159	-0.692331	-0.347768	-0.475977	-0.370642	-0.761502	-0.986436	-0.674027	-0.48627	
256.4	-0.422884	-0.502943	-0.396263	-0.488141	-0.589072	-1.19678	-0.70569	-0.551405	-0.378723	
256.2	-0.524085	-0.471512	-0.462904	-0.429491	-0.699696	-1.11572	-0.513934	-0.767244	-0.412399	
256	-0.356836	-0.633293	-0.557393	-0.674852	-0.497395	-0.887445	-0.789458	-0.590622	-0.615048	
255.8	-0.342764	-0.577356	-0.423227	-0.635066	-0.568413	-0.80986	-0.965091	-0.657497	-0.693283	
255.6	-0.460968	-0.763654	-0.499609	-0.558569	-0.629755	-0.734439	-1.10465	-0.561479	-0.320444	
255.4	-0.425482	-0.46147	-0.315955	-0.369098	-0.626573	-1.10596	-0.76022	-0.590521	-0.514323	
255.2	-0.489481	-0.756474	-0.380702	-0.484061	-0.546019	-0.642122	-0.807315	-0.345818	-0.641016	
255	-0.600568	-0.455801	-0.63308	-0.40269	-0.621562	-0.829161	-0.754504	-0.447244	-0.164757	
254.8	-0.610161	-0.371933	-0.444279	-0.467728	-0.385146	-0.837082	-0.598012	-0.448871	-0.53839	
254.6	-0.535864	-0.438866	-0.692621	-0.551784	-0.617607	-0.466302	-0.841945	-0.851567	-0.479953	
254.4	-0.487091	-0.344089	-0.569316	-0.262798	-0.551288	-1.31069	-0.751363	-0.34286	-0.272731	
254.2	-0.823709	-0.60275	-0.76599	-0.436682	-0.642252	-1.16192	-0.633057	-0.539908	-0.634247	
254	-0.482265	-0.654143	-0.778119	-0.352261	-0.65477	-0.927728	-0.825561	-0.574448	-0.552242	
253.8	-0.330164	-0.429153	-0.49258	-0.506737	-0.607838	-1.0571	-0.672107	-0.727916	-0.569789	
253.6	-0.759709	-0.294313	-0.566302	-0.556049	-0.423845	-1.01224	-0.548196	-0.660463	-0.48718	
253.4	-0.475079	-0.639703	-0.610939	-0.536105	-0.640704	-0.768809	-0.835686	-0.636601	-0.486963	
253.2	-0.68828	-0.582318	-0.577103	-0.432744	-0.693065	-1.01288	-0.798259	-0.686771	-0.830025	
253	-0.633086	-0.349107	-0.666157	-0.414565	-0.665448	-1.01927	-0.808824	-0.681267	-0.493488	
252.8	-0.58735	-0.461754	-0.628345	-0.349109	-0.577638	-1.13899	-0.765961	-0.559364	-0.88797	
252.6	-0.483884	-0.454855	-0.420401	-0.533244	-0.725333	-1.12861	-0.900183	-0.424072	-0.548891	
252.4	-0.58455	-0.527649	-0.707751	-0.37468	-0.725044	-1.06563	-1.10086	-0.668513	-0.689105	
252.2	-0.751248	-0.707561	-0.583296	-0.459174	-0.484235	-0.938234	-0.586289	-0.632747	-0.652847	
252	-0.85919	-0.471126	-0.651022	-0.638356	-0.624483	-0.837355	-0.628078	-0.709511	-0.676689	
251.8	-0.737924	-0.498567	-0.571008	-0.554819	-0.511035	-1.0326	-0.819154	-0.731612	-0.588106	
251.6	-0.566779	-0.634247	-0.499359	-0.557805	-0.809441	-1.13584	-0.876978	-0.514313	-0.898093	
251.4	-0.494437	-0.67144	-0.512672	-0.262082	-0.943831	-1.28512	-1.00815	-0.803561	-0.652048	
251.2	-0.533965	-0.651033	-0.693852	-0.571161	-0.990746	-1.08921	-0.748727	-0.91666	-0.571452	
251	-0.489368	-0.437567	-0.616092	-0.510605	-0.718233	-1.32301	-1.06297	-0.656181	-0.83421	
250.8	-0.612325	-0.53987	-0.297549	-0.747345	-0.723158	-1.12384	-0.771741	-0.782877	-0.729735	
250.6	-0.534567	-0.481851	-0.440126	-0.56241	-0.357724	-1.28066	-0.722845	-0.790053	-0.561862	
250.4	-0.490082	-0.606978	-0.466927	-0.582063	-0.724814	-0.853888	-0.765681	-0.922328	-0.81812	
250.2	-0.317491	-0.700537	-0.84606	-0.736366	-0.617815	-1.20734	-0.695226	-0.789337	-0.55491	
250	-0.643353	-0.504556	-0.671339	-0.550911	-0.742371	-1.07484	-1.0928	-0.756058	-0.745378	
249.8	-0.469965	-0.65146	-0.637616	-0.534355	-0.954951	-1.33551	-0.828889	-0.922032	-0.575531	
249.6	-0.564227	-0.721202	-0.50007	-0.76687	-0.766405	-1.29082	-1.05791	-0.714272	-0.593321	
249.4	-0.773454	-0.814653	-0.221985	-0.668105	-0.753626	-1.30413	-0.964113	-0.737984	-0.679033	
249.2	-0.72197	-0.613002	-0.706866	-0.558757	-1.03755	-1.45561	-1.13605	-0.745438	-0.949776	
249	-0.641975	-0.58033	-0.820151	-0.728185	-1.05127	-1.15327	-1.06291	-0.676044	-0.617459	
248.8	-0.801669	-0.712894	-0.744453	-0.894219	-0.783655	-1.13123	-1.38228	-0.706444	-0.699095	
248.6	-0.660187	-0.949092	-0.779057	-0.587848	-0.871512	-0.953265	-1.14501	-0.818272	-0.934239	
248.4	-0.724899	-0.817828	-0.609485	-0.58802	-0.681769	-0.991467	-1.09993	-0.846777	-0.667183	
248.2	-0.833281	-0.820129	-0.823703	-0.715518	-0.869821	-1.09146	-1.28662	-1.01669	-0.733031	
248	-0.55419	-0.613182	-0.7468	-0.769331	-0.707213	-1.46729	-0.870598	-0.716814	-0.773817	
247.8	-0.995782	-0.717952	-0.666367	-0.80118	-1.02391	-1.31035	-1.14358	-0.841663	-0.870795	
247.6	-0.793543	-0.761223	-0.588361	-0.751492	-0.938062	-1.46981	-1.19165	-0.87578	-0.771812	
247.4	-0.656406	-0.770459	-0.658311	-0.652351	-0.980646	-1.41226	-0.945735	-0.717206	-0.707025	
247.2	-0.619109	-0.830579	-0.685738	-0.713579	-1.05984	-1.2905	-1.05639	-0.982812	-0.89471	
247	-0.413419	-0.686185	-0.742075	-0.806258	-1.10035	-1.33205	-1.37905	-1.18938	-0.873994	
246.8	-0.773766	-0.978648	-0.470845	-0.771211	-0.812141	-1.29523	-0.878864	-0.987939	-0.787454	
246.6	-0.773318	-0.568027	-1.02864	-0.78266	-1.08826	-1.71832	-1.37884	-0.983464	-0.782007	
246.4	-0.606621	-0.954787	-0.918541	-0.893239	-1.22393	-1.65533	-1.16028	-0.948196	-0.861836	
246.2	-0.556899	-0.930205	-0.74438	-0.860275	-0.980412	-1.74697	-1.15109	-1.26919	-1.14668	
246	-0.852405	-0.678606	-0.82877	-1.0544	-1.08677	-1.68381	-1.48818	-0.873671	-0.82903	
245.8	-1.02897	-1.13194	-0.808092	-0.902213	-1.31224	-1.55681	-1.22241	-1.22362	-1.02335	
245.6	-0.89873	-0.932626	-1.01339	-0.936583	-0.960877	-1.71933	-1.27597	-1.16257	-0.971028	
245.4	-1.10042	-0.840393	-0.949904	-1.19471	-1.24829	-1.75436	-1.19362	-1.07873	-0.883763	
245.2	-0.870866	-1.01258	-0.907921	-1.13425	-1.33372	-1.81511	-1.13745	-1.32399	-0.831418	
245	-0.750963	-1.15076	-0.910356	-1.14919	-1.37443	-1.90686	-0.968762	-1.17395	-1.16728	
244.8	-1.15677	-1.05329	-0.953072	-0.911064	-1.01954	-1.92618	-1.68676	-1.02028	-1.21893	
244.6	-0.980722	-1.03976	-1.08822	-0.914818	-1.23041	-1.8761	-1.61733	-1.0919	-1.03855	
244.4	-0.801088	-1.08335	-0.70999	-1.00443	-1.40069	-1.74058	-1.09948	-1.0551	-0.953122	
244.2	-0.912317	-1.01155	-0.99507	-1.17244	-1.44542	-1.84883	-1.68705	-1.00651	-0.868744	
244	-1.09885	-1.20166	-1.30988	-1.06363	-1.34637	-2.14075	-1.59745	-1.14554	-1.039	
243.8	-1.22081	-1.14115	-1.15864	-1.34666	-1.66076	-1.84174	-1.50948	-1.0462	-1.2006	
243.6	-1.08648	-1.14365	-1.32713	-1.18461	-1.60101	-2.00318	-1.84616	-1.19375	-1.21756	
243.4	-1.01953	-1.43406	-1.24645	-1.19022	-1.27205	-1.71884	-1.71263	-1.16	-1.22476	
243.2	-1.42722	-1.28553	-1.28233	-1.22357	-1.5314	-2.14993	-1.87934	-1.45879	-1.24566	
243	-1.47292	-0.904306	-1.53987	-1.53617	-1.55821	-1.91941	-1.61615	-1.45479	-1.38498	
242.8	-1.39669	-1.49236	-1.35931	-1.43213	-1.6853	-2.23932	-1.62896	-1.40399	-1.36469	
242.6	-1.16896	-1.51854	-1.22966	-1.50379	-1.59272	-2.05827	-2.07309	-1.42078	-1.23222	
242.4	-1.33169	-1.46049	-1.48992	-1.44922	-1.60529	-2.25326	-1.76888	-1.65728	-1.29229	
242.2	-1.78549	-1.56718	-1.57305	-1.68914	-2.03427	-2.28807	-1.68122	-1.66842	-1.27612	
242	-1.66945	-1.80457	-1.76079	-1.74717	-1.97631	-2.35773	-1.88818	-1.25293	-1.49445	
241.8	-1.60127	-1.7817	-1.53846	-1.65285	-1.82254	-2.42251	-2.0951	-1.85501	-1.35335	
241.6	-1.54283	-1.53344	-1.83094	-1.66359	-2.13998	-2.25032	-1.80085	-1.53121	-1.5253	
241.4	-1.6944	-1.8089	-1.92601	-1.61792	-2.29638	-2.31597	-2.03512	-1.88613	-1.72124	
241.2	-1.73299	-1.84331	-1.97355	-1.77317	-2.22385	-2.19561	-1.74263	-1.39426	-1.61391	
241	-1.88318	-1.75673	-1.89044	-1.96798	-2.52477	-2.66653	-2.22039	-1.44012	-1.39825	
240.8	-2.05447	-1.79862	-2.14017	-2.00049	-2.48889	-2.33262	-2.06855	-1.53443	-1.59153	
240.6	-1.89119	-1.97774	-1.98439	-2.30729	-2.249	-2.72693	-1.87789	-1.67385	-1.35596	
240.4	-2.05113	-2.1326	-2.29774	-2.12059	-2.59224	-2.47659	-2.09717	-1.82443	-1.87289	
240.2	-2.378	-2.55714	-2.1433	-2.54626	-2.59362	-2.83148	-2.28786	-1.79073	-1.74604	
240	-2.31328	-2.23915	-2.05993	-2.36897	-2.92575	-2.85605	-2.3982	-1.84078	-1.75811	
239.8	-1.98545	-2.33736	-2.2519	-2.43168	-2.62458	-2.85086	-1.88661	-1.88249	-1.80786	
239.6	-2.51447	-2.64514	-2.5269	-2.49759	-2.81295	-2.8489	-2.35321	-1.80439	-1.74856	
239.4	-2.44444	-2.53946	-2.5657	-2.70792	-2.81417	-3.04506	-2.51278	-1.75442	-1.7574	
239.2	-2.62052	-2.55183	-2.69059	-2.78798	-3.15363	-2.88181	-2.67136	-2.04397	-2.16302	
239	-2.70478	-2.83819	-2.90108	-2.81521	-2.80341	-3.31768	-2.81517	-1.86753	-1.82162	
238.8	-2.96646	-2.60937	-2.91045	-3.01185	-3.01644	-2.9319	-2.53011	-2.15529	-2.16358	
238.6	-2.99357	-2.84535	-2.96756	-3.05306	-3.17587	-3.17559	-2.81247	-2.37171	-2.14754	
238.4	-3.13059	-3.04844	-3.09083	-3.30623	-3.27309	-3.07316	-2.74226	-2.37817	-2.14581	
238.2	-3.07461	-3.04388	-3.15878	-3.25355	-3.58051	-2.97807	-2.63029	-1.94154	-2.26228	
238	-3.07398	-3.33697	-3.12041	-3.41992	-3.72286	-3.19578	-2.87948	-2.18421	-2.22205	
237.8	-3.42142	-3.11938	-3.26127	-3.62173	-3.56889	-3.35231	-3.05728	-2.45439	-2.17591	
237.6	-3.33402	-3.58803	-3.41293	-3.40894	-4.08439	-3.43359	-2.66448	-2.27809	-2.18636	
237.4	-3.43947	-3.69709	-3.76969	-3.85373	-4.07858	-3.59566	-3.00241	-2.50686	-2.61733	
237.2	-3.80395	-4.09386	-3.58118	-4.07772	-4.07388	-3.75361	-3.07716	-2.56089	-2.40048	
237	-3.92823	-4.01893	-4.34964	-4.30585	-4.26512	-3.36219	-3.36026	-2.5573	-2.36344	
236.8	-4.03659	-4.11723	-4.18499	-4.18198	-4.35222	-3.75935	-3.03344	-2.50704	-2.83256	
236.6	-4.36076	-4.19678	-4.24661	-4.34884	-4.43467	-3.44414	-3.18276	-2.74657	-2.59386	
236.4	-4.51048	-4.35736	-4.52199	-4.62095	-4.47262	-3.67959	-3.11006	-2.29441	-2.76132	
236.2	-4.53467	-4.66295	-4.74319	-4.69451	-4.91066	-3.74112	-3.36501	-2.83549	-2.83042	
236	-4.94451	-4.49205	-4.65588	-4.84465	-4.88463	-3.9971	-3.44221	-3.12256	-2.81809	
235.8	-4.73251	-4.93405	-4.97579	-4.96099	-4.82757	-3.91358	-3.14324	-3.06389	-2.80686	
235.6	-5.00263	-5.15362	-4.94974	-4.96574	-4.98898	-4.33519	-3.61673	-3.45548	-2.81404	
235.4	-5.23162	-5.38114	-5.23521	-5.45037	-4.98074	-4.09688	-3.80126	-2.68113	-3.09419	
235.2	-5.47031	-5.35047	-5.72385	-5.48965	-5.41038	-4.29712	-3.53139	-3.23568	-2.90416	
235	-5.64893	-5.51641	-5.61107	-5.7867	-5.74202	-4.10295	-3.84348	-3.36841	-3.13893	
234.8	-6.23587	-5.71047	-5.98572	-5.84049	-5.61992	-4.39883	-3.83716	-3.26656	-3.26168	
234.6	-5.9921	-5.93865	-5.73294	-6.10672	-5.92516	-4.19533	-3.63295	-3.38828	-3.25312	
234.4	-6.33966	-6.38659	-6.1642	-6.17822	-6.1675	-4.11219	-3.97952	-3.54645	-3.26647	
234.2	-6.6221	-6.58475	-6.31421	-6.9244	-6.26579	-4.59857	-3.70371	-3.19148	-3.17082	
234	-6.85805	-6.60114	-6.74266	-6.74707	-6.34875	-4.59749	-3.97742	-3.56226	-3.61261	
233.8	-7.13391	-6.97046	-6.99554	-7.00069	-6.71223	-4.47695	-3.9949	-3.82278	-3.54585	
233.6	-7.09227	-7.23003	-7.0555	-6.87623	-7.01315	-4.2074	-4.12221	-3.74675	-3.48374	
233.4	-7.31682	-7.33771	-7.45194	-7.3048	-7.20785	-4.74738	-4.56092	-3.62973	-3.49757	
233.2	-7.45203	-7.76238	-7.86573	-7.46494	-7.39844	-4.68146	-4.27777	-3.63133	-3.62011	
233	-7.80509	-7.74492	-8.0823	-7.94126	-7.81422	-5.12606	-4.51943	-3.63673	-3.89944	
232.8	-8.01693	-8.41782	-8.1753	-7.91768	-7.58581	-4.60453	-4.48837	-3.86313	-3.57359	
232.6	-8.21006	-8.46468	-8.52923	-8.67826	-8.11963	-4.80172	-4.36519	-4.43262	-3.66754	
232.4	-8.83154	-8.74073	-9.01946	-8.26592	-8.08395	-4.98002	-4.48918	-4.10553	-3.95985	
232.2	-9.07669	-9.03041	-9.19104	-8.85455	-8.01283	-4.94305	-4.6204	-4.2572	-3.98327	
232	-9.23906	-9.56891	-9.38925	-9.28051	-9.05566	-4.8413	-5.0473	-4.45674	-3.91718	
231.8	-9.79611	-9.79517	-9.69334	-9.3902	-8.54587	-4.97189	-4.97951	-4.33136	-3.982	
231.6	-9.90591	-9.67311	-9.81415	-9.76194	-9.14284	-5.09729	-4.80158	-4.43695	-4.23377	
231.4	-10.3423	-10.0359	-9.98415	-9.70476	-8.99612	-5.08744	-4.48828	-4.35232	-4.75788	
231.2	-10.6022	-10.6397	-10.4978	-10.2711	-9.29695	-5.45136	-5.23972	-4.4399	-4.19319	
231	-10.8359	-10.7534	-10.858	-10.5984	-9.47198	-5.99336	-5.22375	-4.55152	-4.52096	
230.8	-10.9416	-11.0353	-11.1239	-10.8886	-10.0764	-5.46295	-5.26456	-5.09496	-4.48018	
230.6	-11.5807	-11.3495	-11.3519	-10.9939	-10.1718	-5.71706	-5.38221	-4.64861	-4.55258	
230.4	-11.5437	-11.6555	-11.8086	-11.4059	-10.3114	-5.92045	-5.461	-4.77748	-4.80562	
230.2	-12.3445	-11.8058	-11.1824	-11.612	-10.3377	-5.91148	-5.35486	-4.76564	-4.81402	
230	-11.8375	-12.2507	-12.07	-11.592	-10.3754	-6.53613	-5.45811	-4.97711	-4.94209	
229.8	-12.5869	-12.6773	-12.1934	-12.3748	-10.9548	-6.30804	-6.11355	-4.92571	-4.78491	
229.6	-12.7335	-12.8654	-12.5422	-12.7504	-11.0581	-5.64138	-5.80052	-4.97535	-5.18891	
229.4	-13.0532	-12.99	-12.7843	-12.6078	-11.0434	-6.40349	-5.75878	-5.18334	-4.92929	
229.2	-13.1715	-13.4186	-13.1904	-12.7668	-11.2416	-6.16158	-5.7572	-5.53385	-5.24379	
229	-13.5332	-13.5517	-13.3853	-12.8903	-11.3911	-5.76849	-5.43157	-5.01965	-5.06375	
228.8	-13.9021	-13.9735	-13.8123	-13.224	-11.6112	-6.31219	-5.46894	-5.08125	-5.06615	
228.6	-14.1426	-13.9047	-13.812	-13.5221	-12.3184	-6.50062	-5.97798	-5.64226	-5.1783	
228.4	-14.1638	-14.1786	-14.0744	-13.3363	-12.3552	-6.5399	-5.88038	-5.38809	-5.45137	
228.2	-14.7011	-14.495	-14.2355	-13.8572	-12.6418	-6.43828	-5.73844	-5.42985	-5.36147	
228	-14.8001	-14.7927	-14.6753	-13.9094	-12.5817	-6.54865	-5.62524	-5.21904	-5.64427	
227.8	-14.9429	-15.1961	-14.8796	-14.3042	-12.5148	-6.58682	-5.77085	-5.71994	-5.62169	
227.6	-15.0185	-14.9654	-15.0114	-14.6819	-13.0334	-6.81377	-6.08739	-5.89233	-5.9085	
227.4	-15.3567	-15.0949	-15.2661	-14.9652	-13.3919	-6.46188	-6.09639	-6.00843	-5.494	
227.2	-16.0711	-15.6328	-15.0148	-15.0183	-13.3718	-6.50967	-6.55171	-6.02767	-5.85347	
227	-15.729	-15.8546	-15.2665	-15.3242	-13.3047	-6.76633	-6.74872	-6.08923	-6.03096	
226.8	-15.9773	-15.7741	-16.2182	-15.3995	-13.6198	-6.99388	-6.50388	-6.01612	-5.72918	
226.6	-16.1743	-16.1226	-15.8341	-15.3187	-13.7901	-6.97554	-6.53987	-5.9211	-6.165	
226.4	-16.5145	-16.393	-15.8247	-15.4063	-13.8571	-7.37605	-6.67883	-6.04102	-5.99599	
226.2	-16.5071	-16.1849	-16.5489	-15.5159	-13.7999	-7.28188	-6.56324	-6.43277	-6.01926	
226	-16.7972	-16.4577	-16.5633	-16.0658	-14.1084	-7.04172	-6.79747	-6.18174	-6.15576	
225.8	-17.0407	-16.7889	-16.5742	-16.2099	-14.5015	-7.0955	-6.64282	-6.86018	-6.47719	
225.6	-17.4436	-17.1343	-16.6048	-16.5888	-14.665	-7.51929	-6.65316	-6.37622	-6.74231	
225.4	-17.4183	-17.0685	-16.8538	-16.4468	-14.2545	-7.93652	-6.63728	-6.41425	-6.29042	
225.2	-17.8651	-17.3141	-16.7549	-16.6256	-15.061	-7.74324	-7.14735	-6.90979	-6.45443	
225	-17.9164	-17.2403	-17.2659	-17.0472	-14.5412	-7.2833	-6.8494	-6.82546	-6.71171	
224.8	-17.8426	-17.6122	-17.5008	-16.7459	-14.8791	-6.6868	-7.21768	-6.92606	-6.5165	
224.6	-18.055	-17.3933	-17.0919	-17.1171	-14.9207	-7.06663	-6.92478	-6.91664	-7.08699	
224.4	-17.7589	-17.3617	-17.5901	-17.0388	-15.3513	-7.33348	-6.99351	-6.91714	-6.96502	
224.2	-18.4121	-18.1702	-17.8735	-17.4738	-14.9753	-7.01735	-6.97793	-6.95092	-7.01686	
224	-18.3525	-18.0949	-17.7642	-17.8572	-15.4267	-7.47628	-7.35596	-6.9804	-6.38217	
223.8	-18.5631	-18.4087	-17.7681	-17.1761	-14.9829	-7.31716	-7.03848	-6.91914	-6.99036	
223.6	-18.7295	-18.4381	-17.9485	-18.0731	-15.6228	-7.32831	-7.54159	-6.72203	-6.74295	
223.4	-18.6037	-18.2186	-18.2779	-17.3273	-15.7853	-7.53179	-7.06486	-7.15558	-7.29615	
223.2	-19.0065	-18.7329	-18.2246	-18.2256	-15.4036	-7.8538	-7.44259	-7.09752	-7.01944	
223	-18.7108	-18.8885	-18.1587	-17.8864	-15.8599	-7.9716	-7.50124	-7.49928	-7.19759	
222.8	-19.0636	-18.3982	-18.5486	-17.8798	-15.3017	-7.75787	-7.27764	-7.21089	-7.44217	
222.6	-18.684	-18.8825	-18.0628	-18.2267	-15.8255	-7.59937	-7.34909	-7.39406	-7.19935	
222.4	-18.843	-18.1596	-18.1847	-17.7282	-15.742	-7.73548	-7.63344	-7.59536	-7.09186	
222.2	-19.2531	-18.7875	-18.2607	-17.5533	-15.6558	-8.06238	-7.43759	-7.50978	-7.57807	
222	-19.0002	-18.5301	-18.696	-17.93	-16.0157	-7.58204	-7.84226	-7.23657	-7.59936	
221.8	-19.0723	-18.7388	-18.4709	-18.1304	-16.0818	-8.35699	-7.3892	-7.59431	-7.06518	
221.6	-18.834	-18.9622	-18.8317	-18.3796	-15.6967	-7.76876	-7.72769	-7.87331	-7.28473	
221.4	-19.1266	-18.7402	-18.2869	-18.2692	-15.8945	-8.17532	-8.03056	-7.62232	-7.39089	
221.2	-18.8732	-18.6155	-18.8871	-18.0905	-15.7618	-8.00463	-7.3015	-7.2108	-7.6145	
221	-19.2577	-19.1679	-18.6223	-18.2886	-15.65	-8.0113	-7.79944	-7.90568	-7.14937	
220.8	-18.8667	-18.8286	-18.8191	-18.7921	-16.4832	-8.13246	-7.34072	-7.71233	-7.2898	
220.6	-19.3193	-18.9779	-18.815	-18.1418	-16.4661	-7.55736	-8.17409	-7.45598	-7.56838	
220.4	-19.3985	-18.6249	-18.8718	-18.8847	-15.4477	-8.06108	-8.06797	-7.87274	-7.53919	
220.2	-19.1883	-19.1259	-18.9046	-18.573	-16.0955	-8.41693	-8.14653	-7.90865	-7.4826	
220	-19.4379	-18.8136	-18.6428	-17.9252	-16.116	-7.60975	-7.48154	-7.73908	-7.71876	
219.8	-19.3501	-18.964	-18.7413	-18.3212	-15.9959	-8.34381	-7.60654	-8.06268	-7.28448	
219.6	-19.2282	-18.8286	-18.8946	-18.3892	-16.3166	-8.06523	-7.50339	-7.7263	-7.70487	
219.4	-19.0125	-19.3574	-18.9254	-18.3658	-15.5439	-8.39197	-7.63427	-8.23169	-7.84482	
219.2	-19.567	-18.8975	-19.1133	-18.6098	-16.0059	-7.63117	-7.67046	-7.69161	-7.70284	
219	-18.795	-19.1622	-19.085	-18.8628	-16.1935	-7.5709	-7.55618	-7.59191	-7.65776	
218.8	-19.3287	-19.6458	-19.0462	-18.3559	-16.156	-7.59491	-7.60247	-7.59005	-8.05902	
218.6	-19.4818	-18.9695	-18.8989	-19.119	-16.1108	-7.4667	-7.8556	-7.64012	-8.14981	
218.4	-19.3112	-18.782	-18.9782	-18.6199	-16.2712	-7.32525	-7.546	-8.11583	-7.48097	
218.2	-19.5156	-19.2581	-18.4529	-18.5059	-16.313	-6.98246	-7.51203	-7.66386	-7.57652	
218	-18.9184	-18.9031	-19.3326	-18.7522	-15.6364	-7.60186	-7.86932	-7.86101	-7.99311	
217.8	-19.3051	-19.0224	-19.3006	-18.4683	-16.425	-7.41262	-7.48099	-7.73731	-7.98859	
217.6	-19.8594	-19.3319	-19.6145	-18.8705	-16.4796	-7.4306	-7.47799	-8.05179	-7.93998	
217.4	-19.3672	-19.3846	-18.863	-18.2931	-16.2958	-7.16516	-7.70351	-7.37002	-7.81704	
217.2	-19.8008	-19.1083	-19.9056	-19.512	-16.2661	-7.61909	-7.58469	-8.34187	-8.11248	
217	-19.5469	-19.0983	-19.4642	-19.0624	-16.2704	-8.11648	-7.69204	-7.89651	-7.77324	
216.8	-19.4171	-19.232	-19.4496	-19.064	-16.6601	-7.70052	-7.50168	-7.97729	-8.17069	
216.6	-19.271	-19.2679	-19.6677	-19.269	-16.1094	-7.97057	-7.81884	-8.14633	-8.1576	
216.4	-20.1071	-19.6216	-19.7327	-19.6179	-16.1602	-7.49108	-7.54124	-8.11061	-7.86485	
216.2	-19.8373	-19.9195	-19.7013	-19.0399	-16.7193	-7.73238	-7.52239	-7.97717	-7.65607	
216	-19.9615	-20.0872	-18.967	-19.9645	-15.8785	-7.19662	-7.57732	-7.88604	-7.98556	
215.8	-19.6849	-19.7329	-19.5541	-19.3585	-16.4007	-7.34722	-7.64679	-7.81669	-7.82536	
215.6	-19.971	-19.5489	-19.2747	-19.415	-15.5817	-7.67125	-7.77497	-7.54485	-8.35192	
215.4	-20.5777	-19.9473	-19.8703	-19.4495	-16.2951	-7.83096	-7.82179	-8.07579	-7.84815	
215.2	-20.4203	-20.1035	-19.3514	-19.5281	-16.9254	-7.42765	-7.70428	-8.26596	-8.08845	
215	-20.1805	-19.7581	-19.9926	-19.4843	-16.3132	-7.61016	-7.95541	-8.656	-8.1017	
214.8	-20.1883	-19.7095	-19.4034	-19.561	-15.9205	-7.38956	-7.42072	-8.17297	-8.0076	
214.6	-20.3193	-19.8081	-19.6494	-19.461	-16.5585	-7.17752	-7.68689	-7.07691	-8.55542	
214.4	-20.327	-20.5776	-19.7143	-19.5519	-17.2947	-7.40305	-7.81285	-8.45932	-8.03902	
214.2	-20.0112	-19.8017	-19.6456	-19.1935	-15.8683	-7.33792	-7.79032	-7.95929	-8.35769	
214	-20.6461	-20.0313	-19.9464	-20.1173	-16.8826	-6.90229	-8.20034	-8.0263	-8.38977	
213.8	-20.2991	-20.0309	-19.7546	-19.7839	-17.1506	-7.97805	-7.62033	-8.2012	-8.20024	
213.6	-20.806	-20.5967	-20.3948	-19.9149	-16.6937	-6.7697	-8.12209	-8.19449	-7.79494	
213.4	-21.0547	-20.6997	-19.69	-19.6397	-16.752	-6.99057	-7.7539	-7.89261	-8.51574	
213.2	-20.9898	-20.7111	-20.2439	-20.1293	-17.1622	-7.47577	-8.10602	-7.88948	-8.0651	
213	-21.2391	-20.0876	-21.0087	-20.3093	-18.0127	-6.20887	-7.99714	-7.95314	-7.7485	
212.8	-20.5266	-21.0888	-20.5926	-20.697	-17.3976	-7.26215	-7.95089	-7.9552	-8.16835	
212.6	-21.3073	-20.9675	-21.237	-20.9309	-17.1285	-6.62387	-8.05789	-8.58548	-7.89343	
212.4	-21.3848	-21.3625	-20.9731	-20.7112	-17.3398	-7.60281	-7.91976	-8.83484	-7.69088	
212.2	-21.1625	-21.2597	-21.1786	-20.4648	-17.6151	-7.25691	-7.61718	-7.81924	-8.64387	
212	-21.9321	-21.6966	-21.5962	-21.1121	-17.4506	-7.09296	-7.9115	-8.00291	-7.9056	
211.8	-22.1952	-21.9588	-21.6484	-21.0259	-17.8815	-7.68277	-7.95193	-8.5184	-8.3771	
211.6	-22.4425	-21.8188	-21.8582	-21.6603	-18.3401	-7.42904	-7.87605	-7.64491	-8.40484	
211.4	-22.6754	-22.1589	-22.031	-21.8115	-18.9203	-7.03104	-7.90526	-8.33365	-8.23067	
211.2	-22.8143	-22.6282	-22.9104	-22.1607	-19.0091	-7.11485	-7.64468	-8.34616	-8.06802	
211	-23.4134	-23.1512	-22.3268	-23.0734	-17.8323	-6.64027	-7.457	-8.86702	-9.22763	
210.8	-22.7996	-23.1476	-23.1893	-22.5378	-18.5002	-6.88587	-8.18838	-8.31235	-8.41835	
210.6	-23.3878	-23.1728	-21.9323	-22.8725	-18.8053	-7.65966	-7.23268	-8.36796	-8.59976	
210.4	-24.0586	-23.6663	-23.5588	-22.5696	-19.4662	-8.26641	-7.84072	-8.3062	-8.1287	
210.2	-23.9497	-23.4286	-24.0875	-22.6738	-19.0483	-7.29103	-7.697	-8.69883	-8.62811	
210	-23.8182	-24.0214	-24.1588	-23.3308	-19.4138	-6.98189	-8.36256	-8.49423	-8.69452	
209.8	-24.4204	-24.1179	-24.6568	-23.2098	-19.7292	-8.14645	-7.57794	-8.1993	-8.99823	
209.6	-24.6865	-25.094	-23.8516	-24.1476	-20.1841	-7.36949	-8.42149	-8.2604	-8.91214	
209.4	-24.8427	-24.7899	-24.8755	-23.7007	-19.0799	-8.39337	-8.45525	-7.79008	-8.53666	
209.2	-25.4098	-24.9491	-24.5851	-24.8751	-19.3534	-7.59451	-8.49556	-8.35052	-8.34091	
209	-25.7999	-25.2139	-25.0697	-24.5519	-20.7489	-7.44471	-8.12366	-9.43247	-8.72628	
208.8	-26.3475	-24.675	-25.4248	-23.9737	-20.4237	-8.68245	-9.12493	-8.50069	-8.83993	
208.6	-25.357	-25.3276	-26.0832	-24.9265	-19.9488	-7.74379	-7.4106	-8.989	-8.70437	
208.4	-25.5744	-24.8732	-25.6291	-24.8011	-20.2959	-7.6938	-8.62085	-8.94864	-9.23624	
208.2	-25.2639	-26.6461	-25.8804	-25.422	-21.876	-6.73196	-8.49874	-8.68694	-9.13438	
208	-25.7536	-26.3543	-24.8528	-25.3556	-20.0623	-8.77221	-7.6648	-8.54669	-8.62551	
207.8	-26.1122	-26.0854	-25.7483	-25.2427	-20.1945	-8.21553	-7.51255	-8.6709	-8.77624	
207.6	-26.9233	-25.8058	-25.9835	-25.8815	-21.2453	-8.25366	-8.21993	-9.92749	-9.5862	
207.4	-25.5257	-24.8205	-25.472	-25.6353	-21.6059	-7.56255	-7.83961	-8.94537	-9.64347	
207.2	-26.0298	-25.8986	-25.606	-23.9549	-21.6806	-7.59499	-8.41154	-9.10999	-8.76735	
207	-25.6702	-26.2773	-26.738	-25.4601	-20.6939	-7.32977	-9.04384	-8.69104	-9.91829	
206.8	-26.4486	-24.7554	-25.4997	-24.9998	-20.8883	-7.96756	-8.95901	-9.23455	-9.43788	
206.6	-27.2901	-25.8908	-25.0249	-24.7832	-20.4162	-8.13687	-8.87943	-9.08719	-9.59951	
206.4	-25.6452	-26.9102	-26.294	-23.9523	-20.6428	-7.96552	-8.7133	-9.43008	-8.98359	
206.2	-25.599	-26.2584	-24.9794	-24.7203	-19.7729	-8.37845	-7.97123	-9.22213	-10.1288	
206	-26.5633	-24.5618	-24.7847	-25.7203	-20.6246	-8.26026	-8.83452	-9.06301	-9.54604	
205.8	-25.3234	-24.7532	-24.1355	-24.132	-19.6169	-7.2198	-9.4268	-8.41128	-9.03414	
205.6	-26.0074	-25.9103	-24.8074	-26.1215	-20.1244	-7.85573	-8.18765	-9.04894	-9.2909	
205.4	-25.5482	-24.6927	-24.389	-23.3432	-19.9268	-8.06768	-8.82602	-8.76101	-9.76825	
205.2	-24.4571	-24.068	-23.8066	-23.9371	-19.6483	-8.80865	-8.68375	-8.82867	-9.18686	
205	-25.2001	-24.5399	-24.9073	-23.9527	-18.9115	-8.55623	-7.98689	-8.6361	-9.24351	
204.8	-23.2993	-22.5204	-24.0747	-22.9416	-18.6186	-8.01512	-8.55868	-8.92777	-8.69542	
204.6	-23.5651	-23.2949	-22.6306	-22.44	-19.8436	-8.73184	-8.86016	-8.87796	-10.0886	
204.4	-22.3847	-23.0087	-22.8071	-20.7174	-18.5822	-7.94655	-9.35344	-9.4737	-9.17635	
204.2	-22.4806	-21.2552	-21.8006	-22.2381	-16.4744	-8.28762	-9.28026	-8.87836	-9.54748	
204	-21.3266	-21.788	-19.257	-20.6519	-18.6758	-7.93726	-8.37023	-9.07578	-9.16522	
203.8	-20.5549	-21.6302	-22.1091	-20.1781	-17.2087	-7.80201	-9.23307	-9.98653	-9.5344	
203.6	-18.8004	-21.1768	-20.3687	-22.0907	-17.8284	-7.60776	-9.41931	-8.364	-8.86032	
203.4	-20.9782	-20.3824	-21.6491	-17.5697	-16.8234	-8.60788	-8.25593	-9.56117	-8.94239	
203.2	-19.9525	-18.4064	-17.3125	-19.2297	-14.5651	-8.88465	-7.91907	-7.53493	-9.32684	
203	-19.0768	-18.2773	-18.5699	-18.3752	-14.1373	-8.83019	-8.97851	-8.41919	-8.03001	
202.8	-17.5988	-18.7916	-15.4052	-18.8824	-14.6888	-6.5432	-9.00473	-9.17751	-9.87485	
202.6	-18.0591	-17.3072	-16.4586	-16.3498	-16.0326	-5.51804	-7.98604	-8.69701	-8.0366	
202.4	-18.1519	-16.8849	-18.2947	-16.0623	-14.4781	-7.20701	-8.28178	-8.9186	-7.76701	
202.2	-14.2752	-14.6824	-18.3588	-16.9844	-14.0248	-7.13156	-8.27083	-8.21029	-8.98413	
202	-15.5369	-14.4171	-18.2187	-13.8651	-12.6172	-5.31797	-7.67372	-7.7502	-7.8044	
201.8	-14.541	-13.0327	-12.6978	-14.5033	-11.2284	-6.72025	-7.31692	-7.05527	-5.29257	
201.6	-13.4804	-14.3218	-11.9202	-10.3571	-11.8269	-8.35156	-7.09169	-7.6453	-7.1585	
201.4	-13.4067	-11.8199	-11.8864	-13.6469	-9.76928	-5.29456	-7.10198	-6.4424	-8.34287	
201.2	-13.3816	-10.2441	-12.6822	-10.7207	-12.1103	-7.18628	-7.4006	-8.41091	-9.15898	
201	-10.0856	-14.7182	-8.59686	-9.91008	-5.99797	-6.61453	-5.06079	-7.03977	-6.76373	
200.8	-9.31485	-7.722	-11.0989	-9.38084	-9.24288	-5.25425	-7.79879	-7.63885	-6.05448	
200.6	-8.78061	-6.78318	-11.3217	-10.1329	-9.17873	-6.53909	-6.89875	-6.06929	-7.64791	
200.4	-11.2847	-10.5705	-8.78984	-4.78693	-7.40349	-3.49821	-5.98321	-7.62403	-6.41638	
200.2	-6.08089	-7.0271	-7.87431	-9.17323	-4.38246	-4.61659	-5.6568	-7.10095	-4.38543	
200	-5.85632	-4.80514	-5.433	-6.64092	-3.3316	-5.90919	-6.65831	-6.47885	-6.39595	
199.8	-7.56119	-4.43192	-5.59907	-2.98889	-2.3918	-4.40426	-6.08753	-6.77715	-6.32153	
199.6	-5.50267	-0.759544	-3.37387	-3.55097	-2.88757	-5.444	-5.84874	-7.54988	-5.48082	
199.4	-1.45878	-7.14396	-1.50678	-6.24599	-3.32621	-4.87317	-4.74563	-5.2241	-5.14386	
199.2	-6.06353	-3.60759	-5.47557	-0.749033	-1.19809	-4.14667	-4.1244	-6.10743	-3.56916	
199	1.54965	-1.51631	-1.00993	-2.03666	0.419858	-4.04611	-6.73188	-5.0274	-6.018	
198.8	0.0490173	0.0564591	-1.69403	-0.366354	-2.71871	-2.88948	-2.82523	-3.82927	-6.61038	
198.6	-1.46793	3.30062	2.28532	-1.5544	0.937906	-4.42336	-4.85402	-3.48828	-4.56358	
198.4	0.657275	-1.84473	1.77012	7.78506	0.141635	-6.23535	-4.88387	-3.87547	-4.14158	
198.2	8.9594	8.05828	-3.76865	-0.639787	-0.686136	0.625529	-5.33035	-4.66123	-3.28982	
198	1.35903	2.92313	3.06954	3.80856	0.714322	-4.34883	-3.65839	-2.688	-8.15339	
197.8	10.6866	1.45905	1.33721	0.134152	2.30272	-3.79883	-4.09176	-4.01238	-5.62144	
197.6	3.1506	9.21229	1.50875	0.519012	-0.811574	-2.45561	-3.9303	0.293401	-3.25059	
197.4	4.36093	4.83123	8.95227	6.1124	3.42568	-3.77229	-1.75371	-3.73602	-4.97124	
197.2	3.0626	9.4895	12.6519	7.37174	4.56252	0.46523	-3.61759	0.925162	-4.84821	
197	3.77337	16.4478	11.2051	16.6242	4.35594	-2.06523	-3.19388	-6.90076	0.311376	
196.8	8.06023	8.70815	8.38261	5.65337	-5.19173	1.88904	-2.32687	-1.20169	2.6066	
196.6	8.51792	8.10039	9.002	0.962271	18.9294	-3.99387	0.0680879	-2.39223	-6.64771	
196.4	-1.48972	21.1793	13.4117	6.88973	15.3744	-2.32162	1.50906	-3.42322	-1.84321	
196.2	11.9344	18.4673	-1.15727	2.26687	4.18553	-0.506193	1.30705	-2.64314	1.31996	
196	5.71703	7.5683	12.3935	24.8421	0.437912	1.30228	0.136424	-4.2444	-1.95597	
195.8	13.1563	21.3015	-0.295267	7.72211	21.9878	2.1497	-0.487141	-0.219904	5.30553	
195.6	15.1501	9.94764	10.8629	27.7283	6.0399	2.50045	-4.09934	4.70436	-4.011	
195.4	19.549	17.9847	20.679	-19.8894	12.0447	-0.856624	-9.55969	0.426143	-0.90787	
195.2	2.26311	5.01983	7.95314	2.23929	5.41805	-1.22903	4.69473	-3.1049	3.04621	
195	5.03196	20.9933	6.83239	9.00942	16.3669	-5.16298	-3.10899	-2.66988	0.605765	
194.8	-7.13537	17.9154	11.1903	23.925	12.9658	0.877074	-0.0017025	-0.874576	6.05596	
194.6	6.43187	4.32817	26.5811	12.5235	3.56901	3.30045	11.0285	1.4707	4.41159	
194.4	29.4135	25.6169	10.2002	1.03463	-7.31428	7.72352	-22.1898	-9.91347	14.922	
194.2	-9.58014	13.5068	1.86809	7.97392	0.806113	8.05978	5.17974	-3.39211	-9.77868	
194	5.8368	29.9347	-16.5861	21.0937	-14.0947	-3.02536	-5.64561	-14.9234	-21.6264	
193.8	4.26465	13.9438	40.0338	21.3788	22.4192	16.8323	7.40207	11.4381	-2.05539	
193.6	25.8893	14.7983	2.86514	-21.7164	-15.24	-0.837602	23.0222	10.1667	5.92727	
193.4	-8.74347	3.9608	16.473	13.0854	-8.03345	-11.1767	-4.49473	6.79457	-6.65663	
193.2	19.0737	16.9551	6.22565	6.46043	-29.146	-15.489	8.15993	-0.0379013	-2.99396	
193	-8.0577	16.4754	44.5853	0.629918	-15.3969	-6.08498	7.97179	-14.5824	-6.89295	
192.8	18.1576	-19.0481	7.05256	-15.678	3.99949	1.3445	-7.14034	-6.87426	2.31064	
192.6	18.443	3.77983	10.2142	-2.34969	-40.2727	6.4709	1.61431	-12.1441	6.00074	
192.4	14.5978	13.3605	22.3691	6.81417	1.8772	-20.7352	-0.481947	4.39574	1.01028	
192.2	43.8834	-1.70649	14.0029	9.00898	14.767	-7.93996	-0.559073	-7.82744	11.6326	
192	18.1304	18.5077	0.577216	-14.1079	10.415	-4.83242	17.3966	14.3524	9.03987	
191.8	13.3673	-6.05589	6.87962	10.1845	-7.09297	11.0165	14.5783	1.67014	-0.153266	
191.6	18.2553	21.4782	9.83776	-7.62897	1.48492	-4.38698	4.07933	-7.89895	-16.7957	
191.4	7.97249	10.3088	8.99462	14.7441	-9.47329	13.5183	6.9863	14.1452	-3.56379	
191.2	3.67988	20.279	10.7002	10.1065	-10.422	2.0983	-11.7106	20.4426	-8.1304	
191	10.9995	23.8524	-9.27236	23.9042	-4.57278	12.0681	-9.38189	-6.04932	0.225058	
190.8	5.37255	12.2064	11.3267	-9.72462	15.0543	2.31059	1.16498	-0.236375	22.5521	
190.6	-2.37161	-4.97875	0.75607	14.1767	5.21448	-9.74501	8.06838	0.984284	7.25967	
190.4	9.48913	6.75955	29.7041	0.617746	-11.7279	-15.1149	-15.0563	8.60408	-13.9	
190.2	10.0016	-6.56403	19.4642	22.8914	5.18537	22.8492	-6.9526	-0.500278	2.27358	
190	23.0368	10.0669	-10.6479	-12.6896	5.63013	-4.073	7.61828	-8.00604	-0.480673	
189.8	14.7525	12.9517	2.4876	0.0189759	18.8879	3.61283	10.5854	6.65528	-3.85329	
189.6	1.79099	0.778438	12.0627	8.28435	-3.69836	-3.66913	-1.72189	-11.8794	5.05997	
189.4	2.60188	1.02824	16.5993	1.30555	-1.64721	-5.39968	16.5204	5.74009	6.91101	
189.2	-10.933	-20.2933	16.0071	-17.8839	-4.61682	2.34594	-0.186928	14.0086	1.07155	
189	2.52029	-12.2436	8.66856	10.582	-9.20194	-11.2711	6.27284	-5.38242	0.115549	
188.8	7.4876	-8.00173	4.95935	-14.2836	-24.7669	3.9182	13.8719	-9.69896	7.70936	
188.6	-20.5299	-17.6135	6.28529	-1.269	2.79681	5.44321	0.668741	11.9975	26.5578	
188.4	11.7694	-18.0201	-0.800253	-7.82041	13.4014	-7.91201	24.8627	-2.31573	-9.51276	
188.2	7.37332	-4.21432	10.3416	1.7744	-6.89026	-12.9405	9.36288	4.27975	1.70008	
188	11.7921	12.7336	5.44938	-8.60871	-18.4984	-8.81804	-3.46142	-7.63945	-12.9706	
187.8	9.32269	3.36074	-2.08423	5.64646	-2.54093	-5.09947	-6.96309	-5.94555	-15.196	
187.6	-3.31862	-4.20554	4.41761	15.579	6.32352	-5.52268	4.80281	-0.959555	-6.95542	
187.4	24.1299	15.2747	-6.12977	-13.8718	18.8094	8.65112	3.79872	9.72635	-1.89732	
187.2	6.45712	3.02486	-18.3172	5.08549	-1.13095	21.9609	-9.93884	5.41725	1.09933	
187	-15.4183	0.281003	-5.75749	-16.5331	-11.1632	-0.4886	-6.28193	-15.0021	4.41381	
186.8	3.9783	-17.1271	3.05412	-16.7399	-2.22941	-14.2746	-10.2454	5.74677	-1.02364	
186.6	-11.398	-14.9449	-0.578508	-3.25215	6.80215	-5.18202	0.854332	23.3545	5.84908	
186.4	19.0512	-3.50603	16.4291	18.0705	1.90185	-0.0850418	-3.79852	-15.5964	-5.57787	
186.2	5.0145	10.3094	-8.8177	-9.83114	-14.4429	-0.43217	14.0977	-4.99311	8.33012	
186	5.25358	2.70435	0.688906	5.86254	18.6003	-0.370587	9.24355	-0.609015	8.59531	
185.8	-12.0502	1.55322	-11.2127	2.48951	0.954135	-1.20007	-0.520732	8.02483	-2.95173	
185.6	19.9659	-14.2028	7.77211	-20.3226	20.4515	-22.0653	4.12982	-4.34133	-0.425525	
185.4	2.0589	13.8483	-4.88824	-11.5905	-0.000159836	11.1438	0.133223	-3.07754	-13.9768	
185.2	-9.11585	1.99609	11.0278	16.667	-19.1908	2.42039	3.83727	-10.3021	6.94594	
185	17.0343	-2.84781	-16.6469	25.8331	0.902948	18.7594	-8.84265	-1.95444	16.0667	
184.8	10.2606	-0.432984	7.82324	-9.65735	-2.80303	-1.5496	-2.22187	-4.0929	4.11456	
184.6	-14.4523	-24.7649	-0.720886	7.77844	-14.8314	12.5002	-20.2614	9.4952	-10.9718	
184.4	-3.07528	9.04644	-3.79338	0.0675091	-5.50103	16.5799	-8.73239	-8.17539	8.8831	
184.2	16.0658	-9.11471	3.30948	5.99663	-7.75665	16.0629	5.66923	9.63639	21.4468	
184	18.0142	20.4715	1.84386	-1.89237	15.3037	15.1152	-5.85236	2.06863	-15.4401	
183.8	20.4644	-7.49278	3.12571	4.12137	-0.105388	3.39976	10.2289	4.58125	4.23513	
183.6	-21.965	-7.43528	-0.803981	17.7937	-8.10266	2.57876	-4.37725	-1.07614	-3.78502	
183.4	-9.34269	-4.96028	-9.94201	-7.2165	-30.3715	21.0497	7.72079	-2.399	6.72356	
183.2	21.2641	17.6847	1.31566	8.9213	3.3294	3.34615	6.30635	10.143	0.641578	
183	2.93499	-5.92239	10.9878	-12.645	6.74239	-18.4477	-7.16455	6.22039	-2.68944	
182.8	9.26221	22.6713	-3.10256	7.97381	-12.6506	-0.353731	0.427511	1.65224	2.0585	
182.6	21.8026	-2.37159	12.6452	11.4663	-14.7535	-8.06806	15.579	11.1108	-5.46311	
182.4	-22.5097	4.18654	-4.49934	10.843	23.5299	27.0303	-5.8803	1.5002	20.4401	
182.2	-2.11356	23.8103	-16.5685	-10.7606	-7.35535	-3.31778	8.31618	-6.33769	-4.80854	
182	-9.75976	1.59694	12.0859	-4.72405	-6.00131	-2.69841	31.3089	20.8719	0.908392	
181.8	-31.5796	22.2111	27.721	-16.5027	3.85257	-7.20443	4.37388	19.9898	-5.27493	
181.6	24.1433	3.28125	7.79585	20.2499	25.0597	-32.2211	-12.5949	-0.656256	2.44297	
181.4	-0.758903	-5.46401	4.11113	-0.807849	-13.0387	17.8269	-6.26685	6.41783	1.13502	
181.2	-8.62091	-22.1265	-8.05229	-3.9994	17.3501	17.6602	-1.24994	-1.4763	0.624522	
181	-9.84467	2.63976	6.97474	-6.14315	17.3237	-6.42192	8.94328	5.14665	-12.9923	
180.8	-7.40051	16.8439	0.220457	-16.6016	-4.03839	-15.9067	-7.53302	5.42838	2.04263	
180.6	-14.9471	-1.38248	7.73766	3.65012	15.1628	3.19621	3.01694	-2.50306	-4.03693	
180.4	12.9069	1.84132	17.554	-8.31111	10.595	3.6972	-3.83048	17.5058	-23.1937	
180.2	-2.99111	-13.9996	1.55787	-12.7382	15.922	-5.3735	4.24832	0.771233	3.86115	
180	6.84636	2.94496	-3.39647	0.466967	17.8621	-9.26108	-5.60736	-4.8394	12.1708	
XYDATA2	25	30	35	40	45	50	55	60	65	
260	303.762	304.798	305.374	305.977	310.874	327.192	325.656	315.425	311.675	
259.8	303.818	304.9	305.473	306.039	310.985	327.32	325.758	315.562	311.768	
259.6	303.935	305	305.594	306.138	311.15	327.48	325.911	315.7	311.892	
259.4	304.083	305.147	305.735	306.298	311.291	327.735	326.079	315.862	312.021	
259.2	304.165	305.245	305.843	306.39	311.409	327.922	326.209	315.953	312.093	
259	304.273	305.345	305.953	306.499	311.553	328.15	326.313	316.075	312.206	
258.8	304.404	305.465	306.07	306.633	311.695	328.373	326.495	316.223	312.363	
258.6	304.495	305.528	306.152	306.717	311.808	328.54	326.571	316.343	312.49	
258.4	304.587	305.663	306.27	306.801	311.94	328.714	326.762	316.479	312.577	
258.2	304.723	305.772	306.399	306.923	312.078	328.937	326.896	316.627	312.689	
258	304.763	305.828	306.458	307.01	312.125	329.134	326.973	316.668	312.79	
257.8	304.866	305.917	306.531	307.147	312.262	329.308	327.113	316.779	312.914	
257.6	304.98	306.054	306.649	307.244	312.426	329.53	327.263	316.914	313.069	
257.4	305.039	306.132	306.714	307.323	312.508	329.696	327.415	316.998	313.177	
257.2	305.183	306.223	306.819	307.418	312.622	329.887	327.586	317.129	313.299	
257	305.261	306.304	306.902	307.495	312.743	330.038	327.677	317.238	313.353	
256.8	305.385	306.43	307.045	307.641	312.914	330.296	327.867	317.401	313.513	
256.6	305.482	306.547	307.125	307.734	313.005	330.475	328.001	317.479	313.64	
256.4	305.532	306.629	307.19	307.789	313.105	330.685	328.131	317.621	313.768	
256.2	305.623	306.728	307.332	307.904	313.242	330.908	328.314	317.796	313.9	
256	305.713	306.803	307.438	308.017	313.348	331.072	328.416	317.911	314.004	
255.8	305.864	306.919	307.58	308.167	313.535	331.306	328.589	318.083	314.122	
255.6	305.963	307.034	307.649	308.263	313.635	331.536	328.715	318.202	314.232	
255.4	306.025	307.127	307.737	308.383	313.774	331.762	328.874	318.3	314.334	
255.2	306.124	307.219	307.866	308.479	313.903	331.948	329.006	318.443	314.488	
255	306.229	307.326	307.984	308.567	314.062	332.122	329.153	318.616	314.648	
254.8	306.323	307.375	308.078	308.645	314.149	332.306	329.274	318.728	314.748	
254.6	306.406	307.477	308.158	308.742	314.23	332.488	329.409	318.844	314.812	
254.4	306.559	307.648	308.262	308.905	314.401	332.733	329.615	318.943	314.969	
254.2	306.656	307.761	308.35	309.018	314.512	332.916	329.761	318.999	315.081	
254	306.729	307.89	308.47	309.088	314.628	333.102	329.858	319.097	315.207	
253.8	306.812	307.965	308.587	309.173	314.777	333.292	330.021	319.229	315.354	
253.6	306.925	308.016	308.687	309.241	314.869	333.442	330.163	319.326	315.449	
253.4	307.031	308.099	308.768	309.395	315.009	333.658	330.287	319.427	315.539	
253.2	307.115	308.223	308.86	309.505	315.128	333.873	330.421	319.552	315.693	
253	307.182	308.288	308.943	309.587	315.251	334.067	330.577	319.665	315.785	
252.8	307.298	308.412	309.048	309.678	315.38	334.243	330.74	319.771	315.895	
252.6	307.389	308.519	309.19	309.746	315.491	334.434	330.877	319.91	315.993	
252.4	307.522	308.626	309.275	309.848	315.63	334.637	331.047	320.024	316.1	
252.2	307.641	308.759	309.404	310.018	315.788	334.845	331.25	320.21	316.243	
252	307.766	308.892	309.485	310.109	315.891	335.07	331.378	320.339	316.374	
251.8	307.858	309.001	309.614	310.219	316.092	335.3	331.523	320.459	316.537	
251.6	307.921	309.044	309.668	310.263	316.165	335.426	331.601	320.546	316.61	
251.4	308.049	309.13	309.781	310.421	316.313	335.663	331.744	320.681	316.749	
251.2	308.15	309.235	309.867	310.483	316.437	335.823	331.904	320.814	316.851	
251	308.26	309.352	309.952	310.597	316.556	336.036	332.034	320.955	316.98	
250.8	308.317	309.412	310.034	310.693	316.643	336.222	332.18	320.997	317.092	
250.6	308.416	309.544	310.13	310.787	316.819	336.449	332.347	321.139	317.217	
250.4	308.516	309.635	310.253	310.915	316.935	336.629	332.531	321.274	317.334	
250.2	308.602	309.726	310.341	310.965	317.075	336.778	332.677	321.413	317.45	
250	308.739	309.834	310.478	311.103	317.209	337.026	332.867	321.545	317.555	
249.8	308.859	309.933	310.552	311.252	317.331	337.264	333.015	321.651	317.67	
249.6	308.947	310.037	310.657	311.333	317.449	337.461	333.15	321.724	317.794	
249.4	309.027	310.137	310.747	311.418	317.619	337.655	333.282	321.876	317.911	
249.2	309.097	310.229	310.818	311.474	317.718	337.785	333.421	321.971	318.004	
249	309.232	310.338	310.948	311.583	317.892	337.992	333.584	322.168	318.119	
248.8	309.348	310.426	311.072	311.706	318.021	338.205	333.751	322.275	318.192	
248.6	309.421	310.516	311.101	311.775	318.117	338.353	333.88	322.355	318.306	
248.4	309.509	310.62	311.225	311.917	318.26	338.583	334.03	322.47	318.418	
248.2	309.585	310.716	311.322	311.976	318.356	338.759	334.138	322.599	318.551	
248	309.647	310.771	311.387	312.019	318.429	338.867	334.272	322.66	318.633	
247.8	309.77	310.863	311.512	312.143	318.564	339.078	334.434	322.76	318.733	
247.6	309.837	310.956	311.54	312.237	318.68	339.263	334.533	322.867	318.82	
247.4	309.94	311.024	311.621	312.367	318.794	339.442	334.682	322.969	318.906	
247.2	310.108	311.198	311.797	312.493	318.975	339.707	334.903	323.145	319.125	
247	310.215	311.292	311.907	312.575	319.158	339.89	335.062	323.261	319.212	
246.8	310.392	311.465	312.124	312.779	319.374	340.155	335.292	323.502	319.415	
246.6	310.541	311.613	312.26	312.913	319.543	340.402	335.492	323.669	319.562	
246.4	310.715	311.736	312.396	313.091	319.713	340.677	335.647	323.863	319.71	
246.2	310.857	311.897	312.478	313.232	319.853	340.918	335.828	324.011	319.826	
246	310.926	312.029	312.613	313.329	320.01	341.157	335.998	324.116	319.947	
245.8	311.075	312.141	312.782	313.456	320.176	341.367	336.17	324.281	320.095	
245.6	311.185	312.229	312.874	313.547	320.318	341.535	336.282	324.412	320.243	
245.4	311.341	312.39	313.021	313.741	320.532	341.773	336.526	324.568	320.362	
245.2	311.457	312.536	313.128	313.861	320.66	341.989	336.681	324.733	320.483	
245	311.562	312.63	313.195	313.958	320.78	342.187	336.791	324.832	320.58	
244.8	311.71	312.799	313.383	314.117	321.009	342.458	337.004	324.993	320.73	
244.6	311.83	312.877	313.51	314.197	321.176	342.694	337.179	325.152	320.843	
244.4	311.998	313.034	313.656	314.366	321.329	342.934	337.386	325.312	321	
244.2	312.16	313.18	313.82	314.526	321.544	343.134	337.578	325.506	321.145	
244	312.268	313.271	313.92	314.66	321.694	343.357	337.714	325.646	321.259	
243.8	312.433	313.479	314.074	314.828	321.91	343.644	337.972	325.816	321.438	
243.6	312.611	313.62	314.28	314.985	322.096	343.875	338.157	326.003	321.63	
243.4	312.729	313.749	314.394	315.124	322.28	344.088	338.329	326.149	321.765	
243.2	312.909	313.908	314.563	315.3	322.491	344.342	338.543	326.334	321.889	
243	313.088	314.122	314.757	315.517	322.701	344.643	338.796	326.545	322.087	
242.8	313.218	314.288	314.903	315.664	322.906	344.931	338.996	326.712	322.227	
242.6	313.412	314.437	315.05	315.837	323.119	345.119	339.211	326.857	322.374	
242.4	313.609	314.634	315.256	316.016	323.342	345.427	339.469	327.01	322.592	
242.2	313.757	314.8	315.479	316.205	323.578	345.718	339.687	327.23	322.746	
242	314.044	315.089	315.742	316.488	323.879	346.051	340.015	327.517	322.992	
241.8	314.288	315.289	315.954	316.719	324.069	346.349	340.269	327.712	323.151	
241.6	314.483	315.513	316.131	316.989	324.346	346.657	340.521	327.929	323.349	
241.4	314.687	315.746	316.376	317.203	324.62	346.984	340.747	328.065	323.557	
241.2	314.955	316.021	316.649	317.439	324.921	347.284	341.008	328.293	323.775	
241	315.159	316.218	316.872	317.637	325.178	347.546	341.26	328.489	323.987	
240.8	315.433	316.46	317.123	317.875	325.457	347.882	341.515	328.758	324.185	
240.6	315.666	316.715	317.368	318.159	325.782	348.235	341.773	328.959	324.394	
240.4	315.951	316.993	317.609	318.426	326.093	348.59	342.078	329.195	324.659	
240.2	316.223	317.283	317.905	318.716	326.397	348.991	342.369	329.409	324.899	
240	316.522	317.55	318.21	319.009	326.709	349.348	342.693	329.702	325.16	
239.8	316.813	317.872	318.539	319.299	327.073	349.667	343.018	330.001	325.404	
239.6	317.122	318.173	318.848	319.661	327.433	350.051	343.341	330.29	325.695	
239.4	317.442	318.496	319.131	319.987	327.753	350.439	343.663	330.564	325.902	
239.2	317.799	318.852	319.446	320.316	328.154	350.871	344.007	330.844	326.186	
239	318.172	319.205	319.802	320.669	328.51	351.256	344.332	331.093	326.464	
238.8	318.531	319.513	320.156	321.022	328.925	351.652	344.69	331.414	326.787	
238.6	318.879	319.88	320.579	321.418	329.343	352.062	345.042	331.75	327.1	
238.4	319.273	320.266	320.952	321.825	329.767	352.473	345.425	332.104	327.418	
238.2	319.592	320.611	321.249	322.157	330.112	352.836	345.753	332.385	327.621	
238	320.015	321.025	321.652	322.591	330.569	353.346	346.173	332.705	327.945	
237.8	320.423	321.422	322.098	322.991	331.04	353.842	346.552	333.049	328.334	
237.6	320.854	321.866	322.556	323.385	331.525	354.273	346.962	333.377	328.732	
237.4	321.254	322.263	322.961	323.792	331.918	354.614	347.318	333.662	328.982	
237.2	321.716	322.756	323.399	324.313	332.435	355.123	347.739	334.034	329.334	
237	322.205	323.203	323.844	324.772	332.881	355.627	348.17	334.398	329.696	
236.8	322.702	323.7	324.363	325.27	333.356	356.085	348.568	334.74	330.021	
236.6	323.156	324.188	324.82	325.721	333.894	356.595	348.965	335.07	330.386	
236.4	323.663	324.665	325.347	326.228	334.449	357.055	349.422	335.442	330.778	
236.2	324.183	325.165	325.835	326.74	334.922	357.517	349.866	335.802	331.123	
236	324.716	325.71	326.383	327.292	335.499	358.041	350.32	336.211	331.501	
235.8	325.211	326.237	326.904	327.823	336.034	358.526	350.778	336.598	331.864	
235.6	325.78	326.775	327.449	328.393	336.612	359.071	351.24	336.974	332.228	
235.4	326.344	327.337	327.986	328.943	337.205	359.6	351.68	337.366	332.607	
235.2	326.93	327.94	328.61	329.501	337.806	360.08	352.206	337.823	333.034	
235	327.495	328.518	329.213	330.079	338.405	360.601	352.66	338.221	333.421	
234.8	328.136	329.167	329.771	330.733	339.013	361.137	353.177	338.636	333.803	
234.6	328.739	329.728	330.372	331.334	339.597	361.668	353.675	339.065	334.159	
234.4	329.407	330.388	331.035	332.006	340.314	362.272	354.205	339.473	334.607	
234.2	330.06	331.043	331.678	332.621	340.928	362.785	354.672	339.885	334.988	
234	330.722	331.697	332.358	333.277	341.588	363.331	355.206	340.298	335.425	
233.8	331.383	332.375	333.049	333.981	342.236	363.892	355.752	340.808	335.879	
233.6	332.066	333.008	333.656	334.675	342.915	364.452	356.259	341.214	336.244	
233.4	332.759	333.73	334.357	335.377	343.597	365.034	356.799	341.662	336.698	
233.2	333.509	334.511	335.149	336.104	344.374	365.673	357.327	342.096	337.158	
233	334.227	335.217	335.874	336.82	345.113	366.198	357.793	342.502	337.56	
232.8	334.985	335.909	336.609	337.542	345.775	366.755	358.324	342.995	337.986	
232.6	335.695	336.607	337.281	338.219	346.448	367.28	358.822	343.407	338.436	
232.4	336.394	337.385	338.025	338.979	347.181	367.886	359.328	343.869	338.887	
232.2	337.154	338.122	338.764	339.73	347.893	368.434	359.883	344.28	339.322	
232	337.915	338.837	339.496	340.429	348.619	369.011	360.34	344.685	339.777	
231.8	338.637	339.57	340.242	341.135	349.339	369.583	360.826	345.143	340.249	
231.6	339.419	340.322	341.011	341.921	350.06	370.125	361.37	345.621	340.708	
231.4	340.191	341.118	341.799	342.698	350.844	370.718	361.933	346.081	341.174	
231.2	341.042	341.906	342.557	343.533	351.621	371.347	362.475	346.617	341.661	
231	341.813	342.656	343.329	344.271	352.371	371.957	363.023	347.052	342.106	
230.8	342.508	343.44	344.09	345.004	353.081	372.525	363.54	347.475	342.571	
230.6	343.25	344.144	344.821	345.688	353.842	373.053	364.042	347.91	343	
230.4	343.932	344.839	345.495	346.389	354.471	373.534	364.462	348.323	343.39	
230.2	344.537	345.445	346.119	347.082	355.115	373.995	364.898	348.755	343.757	
230	345.191	346.082	346.727	347.742	355.752	374.499	365.318	349.149	344.143	
229.8	345.908	346.785	347.472	348.467	356.419	375.048	365.806	349.555	344.544	
229.6	346.615	347.506	348.157	349.094	357.109	375.616	366.312	349.981	344.974	
229.4	347.455	348.309	348.961	349.863	357.919	376.221	366.945	350.549	345.535	
229.2	348.281	349.11	349.831	350.737	358.748	376.876	367.547	351.15	346.127	
229	349.044	349.892	350.564	351.564	359.55	377.538	368.185	351.716	346.69	
228.8	349.818	350.659	351.318	352.262	360.27	378.128	368.722	352.228	347.181	
228.6	350.534	351.398	352.068	352.976	360.974	378.778	369.29	352.758	347.76	
228.4	351.245	352.062	352.769	353.671	361.684	379.386	369.826	353.219	348.267	
228.2	351.911	352.764	353.456	354.355	362.395	379.964	370.336	353.73	348.751	
228	352.664	353.451	354.194	355.154	363.123	380.573	370.892	354.216	349.235	
227.8	353.392	354.172	354.838	355.831	363.837	381.136	371.432	354.698	349.719	
227.6	353.999	354.827	355.52	356.497	364.479	381.719	371.933	355.208	350.156	
227.4	354.639	355.482	356.165	357.127	365.115	382.253	372.405	355.63	350.599	
227.2	355.312	356.119	356.797	357.699	365.761	382.791	372.909	356.06	351.068	
227	355.998	356.786	357.509	358.42	366.426	383.348	373.402	356.556	351.575	
226.8	356.614	357.397	358.128	359.112	367.041	383.892	373.898	357.023	352.011	
226.6	357.215	358.034	358.72	359.723	367.656	384.365	374.407	357.48	352.427	
226.4	357.91	358.686	359.399	360.39	368.36	384.924	374.977	357.988	352.888	
226.2	358.534	359.318	360.028	360.986	369.015	385.523	375.495	358.381	353.344	
226	359.15	359.977	360.706	361.651	369.599	386.01	375.985	358.828	353.845	
225.8	359.849	360.586	361.385	362.321	370.261	386.581	376.49	359.34	354.365	
225.6	360.442	361.211	361.971	362.933	370.89	387.083	376.943	359.787	354.788	
225.4	361.072	361.885	362.551	363.569	371.498	387.619	377.458	360.248	355.23	
225.2	361.683	362.486	363.152	364.185	372.118	388.139	377.936	360.674	355.659	
225	362.3	363.143	363.81	364.823	372.773	388.695	378.45	361.124	356.123	
224.8	362.912	363.829	364.499	365.43	373.358	389.262	378.959	361.553	356.625	
224.6	363.516	364.382	365.1	366.046	373.989	389.76	379.442	361.997	357.035	
224.4	364.124	364.981	365.691	366.697	374.63	390.236	379.968	362.439	357.482	
224.2	364.767	365.583	366.257	367.284	375.253	390.791	380.442	362.915	357.895	
224	365.361	366.199	366.88	367.863	375.857	391.342	380.914	363.321	358.356	
223.8	366.003	366.811	367.524	368.491	376.465	391.905	381.388	363.743	358.833	
223.6	366.623	367.429	368.173	369.133	377.101	392.45	381.88	364.223	359.304	
223.4	367.306	368.105	368.824	369.807	377.769	392.947	382.426	364.71	359.793	
223.2	367.936	368.71	369.435	370.471	378.426	393.496	382.937	365.226	360.277	
223	368.526	369.309	370.031	371.106	379.046	394.055	383.433	365.605	360.674	
222.8	369.15	369.91	370.628	371.684	379.654	394.565	383.968	366.064	361.138	
222.6	369.832	370.628	371.348	372.374	380.341	395.163	384.447	366.479	361.609	
222.4	370.453	371.266	372.004	373.034	381.006	395.706	384.922	366.977	362.133	
222.2	371.105	371.922	372.684	373.704	381.685	396.271	385.48	367.456	362.61	
222	371.784	372.574	373.35	374.395	382.333	396.843	385.962	367.957	363.066	
221.8	372.501	373.234	373.982	375.053	383.047	397.388	386.51	368.402	363.542	
221.6	373.155	373.909	374.616	375.676	383.687	397.963	386.992	368.883	364.02	
221.4	373.817	374.563	375.308	376.353	384.35	398.538	387.513	369.353	364.496	
221.2	374.531	375.278	376.023	377.068	385.085	399.199	388.094	369.884	365	
221	375.205	375.963	376.701	377.792	385.788	399.733	388.612	370.412	365.462	
220.8	375.933	376.653	377.371	378.505	386.512	400.321	389.182	370.925	366.015	
220.6	376.592	377.38	378.104	379.233	387.197	400.959	389.68	371.427	366.493	
220.4	377.312	378.088	378.803	379.893	387.897	401.57	390.219	371.938	367.02	
220.2	378.038	378.774	379.587	380.624	388.654	402.176	390.83	372.506	367.531	
220	378.75	379.474	380.288	381.35	389.332	402.779	391.366	372.992	368.061	
219.8	379.514	380.263	380.993	382.121	390.098	403.369	391.949	373.541	368.58	
219.6	380.201	380.963	381.707	382.849	390.855	404.048	392.571	374.097	369.098	
219.4	380.897	381.678	382.44	383.598	391.612	404.695	393.135	374.641	369.609	
219.2	381.643	382.382	383.173	384.286	392.315	405.323	393.69	375.167	370.152	
219	382.387	383.145	383.971	385.027	393.119	405.963	394.303	375.726	370.758	
218.8	383.115	383.817	384.668	385.792	393.862	406.593	394.84	376.285	371.297	
218.6	383.837	384.599	385.412	386.572	394.585	407.225	395.435	376.921	371.866	
218.4	384.586	385.337	386.132	387.317	395.39	407.848	396.046	377.471	372.42	
218.2	385.386	386.095	386.936	388.082	396.146	408.55	396.686	378.069	372.935	
218	386.141	386.894	387.713	388.855	396.93	409.172	397.25	378.624	373.504	
217.8	386.962	387.653	388.484	389.662	397.739	409.87	397.843	379.201	374.075	
217.6	387.716	388.421	389.265	390.495	398.497	410.521	398.43	379.798	374.682	
217.4	388.496	389.236	390.023	391.263	399.313	411.142	399.045	380.391	375.24	
217.2	389.327	390.053	390.903	392.136	400.132	411.822	399.716	380.977	375.841	
217	390.128	390.885	391.747	392.991	400.928	412.557	400.367	381.623	376.376	
216.8	391.006	391.73	392.623	393.743	401.789	413.269	401	382.233	377.003	
216.6	391.841	392.573	393.434	394.686	402.686	414.002	401.646	382.842	377.595	
216.4	392.687	393.458	394.313	395.551	403.528	414.711	402.347	383.512	378.253	
216.2	393.557	394.35	395.193	396.508	404.462	415.485	403.05	384.184	378.883	
216	394.472	395.268	396.095	397.411	405.31	416.211	403.72	384.825	379.513	
215.8	395.417	396.176	397.082	398.32	406.288	416.977	404.467	385.513	380.186	
215.6	396.362	397.086	398.023	399.204	407.239	417.745	405.148	386.156	380.822	
215.4	397.253	398.031	398.943	400.253	408.161	418.53	405.858	386.835	381.507	
215.2	398.224	399.003	399.963	401.221	409.152	419.243	406.646	387.584	382.194	
215	399.22	400.005	400.93	402.241	410.151	420.066	407.325	388.264	382.862	
214.8	400.225	401.011	401.963	403.329	411.141	420.907	408.147	389.023	383.6	
214.6	401.277	402.022	403.027	404.298	412.235	421.778	408.863	389.782	384.273	
214.4	402.301	403.084	404.06	405.385	413.242	422.601	409.655	390.514	385.044	
214.2	403.36	404.127	405.156	406.492	414.303	423.441	410.4	391.275	385.761	
214	404.428	405.256	406.24	407.633	415.4	424.282	411.168	392.066	386.529	
213.8	405.529	406.364	407.347	408.757	416.501	425.16	411.972	392.879	387.319	
213.6	406.701	407.512	408.461	409.887	417.65	426.061	412.782	393.714	388.084	
213.4	407.854	408.727	409.707	411.098	418.829	427.038	413.684	394.526	388.88	
213.2	409.094	409.937	410.993	412.375	420.11	428.039	414.595	395.34	389.785	
213	410.349	411.193	412.259	413.7	421.4	428.982	415.488	396.253	390.658	
212.8	411.683	412.542	413.579	415.025	422.663	429.968	416.402	397.165	391.626	
212.6	413.008	413.83	414.907	416.397	423.966	430.954	417.355	398.101	392.471	
212.4	414.341	415.191	416.246	417.717	425.309	432.013	418.269	398.997	393.33	
212.2	415.801	416.592	417.7	419.133	426.729	433.111	419.271	399.959	394.32	
212	417.154	417.982	419.115	420.609	428.184	434.151	420.259	400.907	395.289	
211.8	418.661	419.443	420.605	422.117	429.587	435.222	421.288	401.93	396.253	
211.6	420.159	420.944	422.172	423.711	431.067	436.358	422.388	402.955	397.25	
211.4	421.632	422.505	423.657	425.213	432.527	437.493	423.44	403.949	398.213	
211.2	423.249	424.078	425.245	426.831	434.083	438.685	424.551	405.019	399.238	
211	424.81	425.693	426.902	428.448	435.733	439.951	425.669	406.079	400.366	
210.8	426.49	427.398	428.541	430.128	437.337	441.098	426.809	407.138	401.392	
210.6	428.136	429.067	430.304	431.864	438.966	442.266	427.938	408.262	402.523	
210.4	429.843	430.774	432.04	433.705	440.67	443.518	429.194	409.48	403.664	
210.2	431.58	432.555	433.832	435.505	442.386	444.853	430.389	410.641	404.799	
210	433.481	434.39	435.698	437.307	444.229	446.216	431.637	411.817	405.979	
209.8	435.384	436.238	437.618	439.238	446.067	447.605	432.958	413.034	407.194	
209.6	437.255	438.199	439.591	441.253	447.914	448.988	434.249	414.319	408.474	
209.4	439.205	440.158	441.585	443.329	449.915	450.317	435.597	415.666	409.747	
209.2	441.284	442.278	443.736	445.477	451.98	451.805	436.975	417.007	411.123	
209	443.498	444.446	445.931	447.673	454.077	453.361	438.46	418.377	412.473	
208.8	445.594	446.606	448.087	449.804	456.201	454.837	439.826	419.722	413.787	
208.6	447.871	448.925	450.399	452.127	458.338	456.425	441.327	421.128	415.28	
208.4	450.175	451.148	452.755	454.553	460.562	458.061	442.827	422.595	416.755	
208.2	452.65	453.632	455.196	457.068	463.005	459.651	444.458	424.14	418.304	
208	455.088	456.025	457.659	459.602	465.368	461.263	446.071	425.664	419.875	
207.8	457.647	458.573	460.276	462.226	467.85	463.005	447.696	427.252	421.437	
207.6	460.223	461.253	462.971	464.853	470.269	464.805	449.41	428.894	423.046	
207.4	462.828	463.968	465.771	467.662	472.92	466.659	451.195	430.555	424.806	
207.2	465.513	466.709	468.516	470.487	475.593	468.478	452.893	432.278	426.518	
207	468.319	469.537	471.374	473.466	478.436	470.38	454.72	433.96	428.298	
206.8	471.221	472.467	474.289	476.403	481.119	472.241	456.609	435.816	430.084	
206.6	474.386	475.517	477.466	479.478	484.152	474.365	458.638	437.785	432.03	
206.4	477.452	478.593	480.613	482.601	487.089	476.395	460.659	439.689	433.924	
206.2	480.59	481.766	483.777	485.909	490.172	478.445	462.683	441.695	435.898	
206	483.801	485.075	487.086	489.269	493.218	480.55	464.779	443.673	437.9	
205.8	487.029	488.333	490.476	492.721	496.467	482.681	466.829	445.756	439.95	
205.6	490.62	491.835	493.925	496.178	499.688	484.852	468.988	447.786	441.981	
205.4	494.063	495.416	497.663	499.861	503.136	487.18	471.236	450.056	444.182	
205.2	497.618	499.039	501.402	503.624	506.649	489.636	473.65	452.239	446.482	
205	501.26	502.707	505.13	507.503	510.339	492.043	475.968	454.473	448.866	
204.8	505.246	506.736	509.172	511.6	514.073	494.561	478.475	456.896	451.389	
204.6	509.166	510.728	513.182	515.731	517.949	497.053	480.969	459.332	453.86	
204.4	513.33	514.926	517.503	519.89	521.77	499.595	483.522	461.899	456.488	
204.2	517.681	519.265	521.849	524.311	525.879	502.395	486.238	464.519	459.165	
204	522.039	523.588	526.347	528.799	530.117	505.209	488.934	467.206	461.91	
203.8	526.46	528.131	530.974	533.44	534.498	508.074	491.861	470.015	464.782	
203.6	531.241	532.709	535.604	538.339	538.907	510.991	494.711	472.929	467.72	
203.4	535.966	537.745	540.644	543.275	543.401	513.977	497.809	475.945	470.75	
203.2	540.695	542.601	545.623	548.369	548.292	517.211	500.995	479.029	474.011	
203	545.804	547.658	550.897	553.601	553.092	520.483	504.056	482.312	477.42	
202.8	551.015	552.979	556.423	559.243	558.31	523.865	507.454	485.63	480.899	
202.6	556.514	558.364	561.865	564.846	563.462	527.386	510.986	489.143	484.442	
202.4	561.993	563.932	567.558	570.647	568.884	530.843	514.528	492.694	488.243	
202.2	567.984	569.826	573.547	576.679	574.482	534.557	518.264	496.475	492.13	
202	573.753	575.808	579.688	582.95	580.503	538.636	522.391	500.583	496.273	
201.8	580.111	582.122	586.07	589.349	586.344	542.53	526.297	504.525	500.384	
201.6	586.414	588.459	592.73	596.038	592.444	546.737	530.438	508.652	504.741	
201.4	592.912	594.944	599.37	602.942	598.875	551.041	534.87	513.142	509.383	
201.2	599.528	601.781	606.309	609.914	605.274	555.474	539.428	517.649	514.047	
201	606.591	608.81	613.674	617.24	612.229	560.018	544.042	522.387	518.973	
200.8	613.758	616.149	621.237	625.009	619.368	564.831	549.055	527.416	524.252	
200.6	621.112	623.75	628.962	632.756	626.552	569.711	554.112	532.694	529.732	
200.4	628.568	631.442	636.968	640.974	634.133	574.963	559.483	537.983	535.385	
200.2	636.571	639.61	645.399	649.391	641.901	580.275	564.92	543.555	541.237	
200	644.766	647.782	653.738	658.134	650.292	585.923	570.816	549.547	547.474	
199.8	653.098	656.182	662.576	667.301	658.537	591.651	576.554	555.676	553.881	
199.6	661.452	664.946	671.702	676.494	667.142	597.523	582.861	562.044	560.924	
199.4	670.194	673.92	680.841	685.699	675.909	603.642	589.389	568.977	567.885	
199.2	679.33	683.404	690.587	695.724	685.279	610.286	596.195	575.721	575.241	
199	688.777	692.876	700.522	706.246	695.002	616.984	603.129	583.127	582.897	
198.8	698.387	702.739	710.596	716.675	704.802	623.844	610.383	590.703	591.029	
198.6	708.17	712.863	721.279	727.346	714.872	630.846	618.022	598.454	599.447	
198.4	718.265	723.038	732.172	738.734	725.358	638.268	625.84	606.978	608.667	
198.2	728.382	733.862	743.532	750.207	736.45	646.39	634.273	615.793	618.03	
198	738.7	744.699	754.949	762.181	747.97	654.39	642.911	624.677	627.892	
197.8	749.768	755.841	766.739	774.564	759.795	662.971	652.047	634.1	638.081	
197.6	760.698	767.228	778.728	787.016	771.792	671.813	661.77	644.928	649.285	
197.4	771.918	778.989	791.155	800.01	784.427	681.235	671.758	655.122	661.02	
197.2	783.499	791.024	803.928	813.439	797.318	691.176	682.715	667.103	673.837	
197	795.259	803.432	816.866	827.072	810.631	701.357	693.36	678.049	686.625	
196.8	807.324	816.07	830.345	840.927	824.469	712.341	705.322	691.348	700.624	
196.6	819.322	828.777	843.689	855.032	838.299	723.416	717.423	704.155	714.478	
196.4	831.356	841.39	856.853	868.848	852.378	735.277	730.246	717.635	729.547	
196.2	843.682	854.47	870.654	883.274	866.655	747.776	743.772	732.325	745.757	
196	856.292	867.529	884.09	897.591	881.243	760.769	758.045	747.663	762.223	
195.8	868.752	880.853	898.133	912.09	896.298	774.597	773.305	763.927	780.34	
195.6	881.245	893.929	911.737	926.107	910.911	788.891	789.144	780.894	798.862	
195.4	893.593	906.663	924.987	939.692	925.725	804.156	805.741	798.848	818.921	
195.2	905.597	919.428	938.058	953.169	940.297	819.82	823.274	817.97	839.042	
195	917.824	932.217	950.954	966.502	954.743	836.128	841.53	837.665	860.061	
194.8	929.578	944.609	963.668	979.525	968.781	852.994	859.809	857.678	881.657	
194.6	941.37	957.023	976.196	991.765	982.213	870.211	878.934	878.008	903.53	
194.4	952.955	968.654	987.551	1003.15	994.814	887.834	898.648	899.019	925.404	
194.2	964.091	980.314	998.926	1013.73	1006.86	906.185	919.037	919.924	947.227	
194	975.185	991.221	1008.97	1017.24	1014.64	924.579	938.876	941.203	968.861	
193.8	985.404	1001.52	1016.71	1017.27	1017.31	942.789	958.913	962.3	989.698	
193.6	995.881	1011.49	1016.99	1017	1017.16	961.388	979.317	983.183	1009.05	
193.4	1005.3	1016.75	1017.04	1017.19	1017.2	979.225	998.835	1002.45	1017.3	
193.2	1013.85	1016.93	1016.95	1017.13	1017.09	996.507	1014.28	1016.26	1017.31	
193	1016.22	1016.89	1017.16	1017.11	1017.15	1011.95	1017.43	1017.29	1017.29	
192.8	1016.37	1016.65	1016.95	1017.03	1017.25	1017.39	1017.33	1017.29	1017.33	
192.6	1016.31	1016.81	1016.97	1017.11	1017.04	1017.38	1017.37	1017.26	1017.35	
192.4	1016.3	1016.85	1017.03	1017.15	1017.25	1017.22	1017.34	1017.35	1017.33	
192.2	1016.46	1016.78	1016.99	1017.16	1017.32	1017.27	1017.37	1017.29	1017.37	
192	1016.32	1016.88	1016.94	1017.04	1017.28	1017.31	1017.45	1017.41	1017.36	
191.8	1016.3	1016.75	1016.96	1017.17	1017.2	1017.38	1017.45	1017.34	1017.33	
191.6	1016.32	1016.88	1016.97	1017.08	1017.25	1017.31	1017.4	1017.3	1017.24	
191.4	1016.27	1016.82	1016.98	1017.19	1017.19	1017.4	1017.41	1017.42	1017.31	
191.2	1016.24	1016.89	1016.98	1017.16	1017.18	1017.35	1017.32	1017.43	1017.29	
191	1016.29	1016.9	1016.89	1017.24	1017.24	1017.4	1017.33	1017.31	1017.33	
190.8	1016.25	1016.84	1016.99	1017.08	1017.31	1017.35	1017.38	1017.34	1017.43	
190.6	1016.23	1016.76	1016.93	1017.2	1017.28	1017.29	1017.42	1017.35	1017.37	
190.4	1016.29	1016.81	1017.08	1017.13	1017.19	1017.26	1017.31	1017.39	1017.27	
190.2	1016.28	1016.75	1017.03	1017.25	1017.28	1017.45	1017.34	1017.34	1017.35	
190	1016.36	1016.84	1016.89	1017.08	1017.27	1017.32	1017.42	1017.31	1017.34	
189.8	1016.32	1016.86	1016.96	1017.13	1017.34	1017.36	1017.44	1017.38	1017.33	
189.6	1016.25	1016.8	1017.01	1017.18	1017.23	1017.33	1017.38	1017.3	1017.36	
189.4	1016.26	1016.79	1017.02	1017.15	1017.25	1017.32	1017.47	1017.38	1017.38	
189.2	1016.19	1016.7	1017.03	1017.05	1017.23	1017.35	1017.39	1017.42	1017.36	
189	1016.27	1016.74	1017	1017.19	1017.21	1017.3	1017.43	1017.33	1017.36	
188.8	1016.3	1016.75	1016.98	1017.08	1017.14	1017.38	1017.47	1017.31	1017.39	
188.6	1016.16	1016.72	1016.99	1017.14	1017.28	1017.37	1017.41	1017.41	1017.48	
188.4	1016.33	1016.71	1016.96	1017.12	1017.34	1017.31	1017.52	1017.36	1017.31	
188.2	1016.3	1016.78	1017.01	1017.16	1017.23	1017.29	1017.45	1017.39	1017.37	
188	1016.33	1016.88	1016.99	1017.12	1017.17	1017.31	1017.39	1017.33	1017.3	
187.8	1016.33	1016.83	1016.95	1017.18	1017.27	1017.32	1017.38	1017.34	1017.29	
187.6	1016.25	1016.78	1016.99	1017.24	1017.31	1017.33	1017.43	1017.36	1017.33	
187.4	1016.4	1016.89	1016.94	1017.09	1017.38	1017.41	1017.43	1017.42	1017.36	
187.2	1016.32	1016.83	1016.88	1017.2	1017.27	1017.47	1017.37	1017.4	1017.37	
187	1016.2	1016.83	1016.95	1017.09	1017.22	1017.36	1017.39	1017.3	1017.4	
186.8	1016.32	1016.73	1017.01	1017.09	1017.27	1017.29	1017.37	1017.41	1017.37	
186.6	1016.23	1016.73	1016.98	1017.15	1017.32	1017.34	1017.43	1017.49	1017.4	
186.4	1016.39	1016.81	1017.08	1017.26	1017.31	1017.37	1017.41	1017.3	1017.35	
186.2	1016.33	1016.89	1016.95	1017.12	1017.22	1017.37	1017.5	1017.37	1017.42	
186	1016.33	1016.85	1017	1017.21	1017.39	1017.38	1017.48	1017.39	1017.42	
185.8	1016.24	1016.85	1016.93	1017.19	1017.3	1017.38	1017.43	1017.43	1017.37	
185.6	1016.42	1016.76	1017.04	1017.08	1017.42	1017.27	1017.46	1017.38	1017.38	
185.4	1016.32	1016.9	1016.97	1017.12	1017.3	1017.44	1017.45	1017.38	1017.33	
185.2	1016.27	1016.87	1017.05	1017.27	1017.23	1017.4	1017.46	1017.34	1017.43	
185	1016.41	1016.83	1016.92	1017.32	1017.31	1017.48	1017.4	1017.4	1017.47	
184.8	1016.38	1016.85	1017.05	1017.14	1017.3	1017.38	1017.44	1017.39	1017.42	
184.6	1016.25	1016.72	1017.02	1017.24	1017.25	1017.46	1017.36	1017.46	1017.35	
184.4	1016.31	1016.89	1016.99	1017.2	1017.31	1017.49	1017.42	1017.37	1017.44	
184.2	1016.42	1016.81	1017.03	1017.25	1017.3	1017.49	1017.48	1017.46	1017.5	
184	1016.43	1016.97	1017.03	1017.2	1017.4	1017.48	1017.43	1017.44	1017.32	
183.8	1016.44	1016.83	1017.03	1017.23	1017.33	1017.43	1017.52	1017.44	1017.43	
183.6	1016.22	1016.82	1017.02	1017.3	1017.28	1017.43	1017.45	1017.42	1017.39	
183.4	1016.3	1016.85	1016.97	1017.18	1017.19	1017.52	1017.51	1017.41	1017.45	
183.2	1016.46	1016.96	1017.04	1017.27	1017.37	1017.44	1017.51	1017.48	1017.42	
183	1016.37	1016.85	1017.1	1017.15	1017.38	1017.35	1017.44	1017.46	1017.42	
182.8	1016.4	1017.01	1017.02	1017.27	1017.28	1017.42	1017.48	1017.44	1017.44	
182.6	1016.5	1016.88	1017.11	1017.29	1017.28	1017.4	1017.56	1017.48	1017.41	
182.4	1016.26	1016.91	1017.03	1017.29	1017.45	1017.57	1017.45	1017.45	1017.53	
182.2	1016.36	1017.01	1016.96	1017.19	1017.32	1017.41	1017.53	1017.41	1017.42	
182	1016.32	1016.9	1017.12	1017.22	1017.33	1017.42	1017.63	1017.55	1017.45	
181.8	1016.21	1017.01	1017.19	1017.15	1017.37	1017.42	1017.52	1017.55	1017.42	
181.6	1016.51	1016.92	1017.1	1017.34	1017.47	1017.28	1017.43	1017.45	1017.46	
181.4	1016.38	1016.89	1017.08	1017.25	1017.3	1017.53	1017.47	1017.49	1017.46	
181.2	1016.35	1016.79	1017.03	1017.23	1017.46	1017.54	1017.5	1017.46	1017.46	
181	1016.35	1016.93	1017.1	1017.23	1017.48	1017.43	1017.55	1017.49	1017.4	
180.8	1016.37	1017	1017.07	1017.17	1017.36	1017.36	1017.48	1017.5	1017.46	
180.6	1016.33	1016.91	1017.12	1017.28	1017.46	1017.48	1017.53	1017.46	1017.45	
180.4	1016.46	1016.93	1017.17	1017.23	1017.44	1017.49	1017.49	1017.55	1017.35	
180.2	1016.39	1016.84	1017.09	1017.19	1017.46	1017.44	1017.54	1017.48	1017.48	
180	1016.45	1016.95	1017.07	1017.27	1017.47	1017.43	1017.49	1017.46	1017.53	
